Frequency (Hz)	Level (dB)
43.066406	-92.644592
86.132812	-84.599144
129.199219	-81.437340
172.265625	-80.302681
215.332031	-84.366676
258.398438	-90.591164
301.464844	-99.384735
344.531250	-101.989975
387.597656	-102.468506
430.664062	-103.403633
473.730469	-104.516304
516.796875	-101.846695
559.863281	-100.282990
602.929688	-97.996513
645.996094	-96.987343
689.062500	-90.408745
732.128906	-87.972244
775.195312	-83.679337
818.261719	-81.922646
861.328125	-81.286369
904.394531	-80.016693
947.460938	-79.508308
990.527344	-75.272774
1033.593750	-74.245163
1076.660156	-75.918083
1119.726562	-75.363060
1162.792969	-76.675255
1205.859375	-78.149208
1248.925781	-78.419250
1291.992188	-76.189186
1335.058594	-76.330841
1378.125000	-77.126015
1421.191406	-75.690437
1464.257812	-76.043785
1507.324219	-79.452148
1550.390625	-76.440636
1593.457031	-72.957535
1636.523438	-72.859947
1679.589844	-73.730339
1722.656250	-72.292046
1765.722656	-69.601227
1808.789062	-67.131325
1851.855469	-66.330597
1894.921875	-59.325794
1937.988281	-43.047798
1981.054688	-30.450287
2024.121094	-31.168627
2067.187500	-46.024063
2110.253906	-58.118176
2153.320312	-62.565929
2196.386719	-67.379753
2239.453125	-73.793091
2282.519531	-73.439056
2325.585938	-75.447899
2368.652344	-74.517494
2411.718750	-77.519028
2454.785156	-78.052933
2497.851562	-77.974007
2540.917969	-80.503769
2583.984375	-79.180298
2627.050781	-81.873055
2670.117188	-81.999786
2713.183594	-83.695366
2756.250000	-83.252075
2799.316406	-82.738388
2842.382812	-84.465134
2885.449219	-83.313194
2928.515625	-83.493988
2971.582031	-84.177567
3014.648438	-83.478821
3057.714844	-82.484161
3100.781250	-81.468788
3143.847656	-83.046417
3186.914062	-84.706703
3229.980469	-86.116730
3273.046875	-83.888458
3316.113281	-85.249825
3359.179688	-84.934387
3402.246094	-84.829147
3445.312500	-85.170349
3488.378906	-86.170784
3531.445312	-87.180107
3574.511719	-86.932098
3617.578125	-88.058907
3660.644531	-89.805733
3703.710938	-88.393349
3746.777344	-89.084099
3789.843750	-89.936798
3832.910156	-88.449486
3875.976562	-88.795235
3919.042969	-88.511200
3962.109375	-79.314713
4005.175781	-75.168251
4048.242188	-81.587318
4091.308594	-87.868538
4134.375000	-88.089859
4177.441406	-89.694946
4220.507812	-91.037788
4263.574219	-94.850243
4306.640625	-95.033737
4349.707031	-93.326553
4392.773438	-94.349319
4435.839844	-94.825188
4478.906250	-98.745285
4521.972656	-98.672668
4565.039062	-96.762482
4608.105469	-99.374527
4651.171875	-99.251556
4694.238281	-98.557510
4737.304688	-98.348061
4780.371094	-98.343185
4823.437500	-97.075859
4866.503906	-99.256805
4909.570312	-100.946465
4952.636719	-99.839226
4995.703125	-100.558632
5038.769531	-100.294640
5081.835938	-98.999756
5124.902344	-100.695831
5167.968750	-100.402122
5211.035156	-102.056381
5254.101562	-102.171143
5297.167969	-101.464211
5340.234375	-103.200417
5383.300781	-101.986115
5426.367188	-102.357346
5469.433594	-101.232224
5512.500000	-101.795204
5555.566406	-100.368187
5598.632812	-102.743401
5641.699219	-106.209213
5684.765625	-104.745758
5727.832031	-105.223640
5770.898438	-105.856819
5813.964844	-105.227760
5857.031250	-103.508812
5900.097656	-100.279732
5943.164062	-90.017960
5986.230469	-80.742424
6029.296875	-82.773666
6072.363281	-95.817917
6115.429688	-99.279762
6158.496094	-101.359528
6201.562500	-101.577950
6244.628906	-102.992424
6287.695312	-102.953217
6330.761719	-104.815796
6373.828125	-108.634476
6416.894531	-106.621422
6459.960938	-106.281784
6503.027344	-105.195938
6546.093750	-104.733299
6589.160156	-106.162643
6632.226562	-109.054718
6675.292969	-108.986656
6718.359375	-109.563866
6761.425781	-108.114243
6804.492188	-107.396446
6847.558594	-108.454277
6890.625000	-110.571442
6933.691406	-110.593521
6976.757812	-109.878479
7019.824219	-110.902466
7062.890625	-113.344810
7105.957031	-113.085091
7149.023438	-111.851387
7192.089844	-110.545151
7235.156250	-108.645699
7278.222656	-109.529686
7321.289062	-111.857246
7364.355469	-112.820755
7407.421875	-112.360069
7450.488281	-111.391968
7493.554688	-111.535423
7536.621094	-111.001305
7579.687500	-111.650871
7622.753906	-112.228462
7665.820312	-112.950256
7708.886719	-112.281693
7751.953125	-112.596855
7795.019531	-113.985321
7838.085938	-113.447769
7881.152344	-112.884071
7924.218750	-113.072067
7967.285156	-109.210609
8010.351562	-107.534790
8053.417969	-112.110695
8096.484375	-113.995476
8139.550781	-114.727303
8182.617188	-115.684128
8225.683594	-114.949921
8268.750000	-114.739037
8311.816406	-115.496948
8354.882812	-115.136650
8397.949219	-115.209213
8441.015625	-115.628639
8484.082031	-115.329704
8527.148438	-115.619308
8570.214844	-115.078506
8613.281250	-115.085411
8656.347656	-115.344421
8699.414062	-115.797386
8742.480469	-115.734535
8785.546875	-115.601456
8828.613281	-115.799034
8871.679688	-115.754906
8914.746094	-115.946129
8957.812500	-115.724304
9000.878906	-115.482491
9043.945312	-115.825195
9087.011719	-115.748291
9130.078125	-115.514412
9173.144531	-115.367989
9216.210938	-115.591682
9259.277344	-115.627274
9302.343750	-116.006752
9345.410156	-116.029243
9388.476562	-115.437416
9431.542969	-115.173981
9474.609375	-116.012383
9517.675781	-116.000778
9560.742188	-115.649307
9603.808594	-115.839844
9646.875000	-115.474945
9689.941406	-115.839447
9733.007812	-115.748543
9776.074219	-115.467979
9819.140625	-115.930908
9862.207031	-115.951622
9905.273438	-115.867470
9948.339844	-115.820648
9991.406250	-115.196739
10034.472656	-115.878067
10077.539062	-115.407822
10120.605469	-115.244217
10163.671875	-115.762802
10206.738281	-115.814980
10249.804688	-115.577713
10292.871094	-115.846352
10335.937500	-115.742638
10379.003906	-116.368546
10422.070312	-115.930099
10465.136719	-115.668808
10508.203125	-115.714973
10551.269531	-115.735863
10594.335938	-115.638023
10637.402344	-115.649849
10680.468750	-115.878494
10723.535156	-115.704323
10766.601562	-115.771126
10809.667969	-115.547806
10852.734375	-115.271820
10895.800781	-115.891052
10938.867188	-115.836586
10981.933594	-115.671959
11025.000000	-115.462555
11068.066406	-115.702614
11111.132812	-115.587204
11154.199219	-115.457352
11197.265625	-115.395195
11240.332031	-115.940987
11283.398438	-115.676666
11326.464844	-115.922150
11369.531250	-115.853874
11412.597656	-115.373352
11455.664062	-115.242096
11498.730469	-115.733437
11541.796875	-116.070831
11584.863281	-115.595718
11627.929688	-115.925293
11670.996094	-115.897530
11714.062500	-115.404671
11757.128906	-115.613258
11800.195312	-115.309875
11843.261719	-115.600250
11886.328125	-115.599640
11929.394531	-115.970337
11972.460938	-115.929703
12015.527344	-115.762253
12058.593750	-115.765114
12101.660156	-116.072594
12144.726562	-115.595757
12187.792969	-115.295143
12230.859375	-115.393929
12273.925781	-115.176315
12316.992188	-115.738388
12360.058594	-115.548325
12403.125000	-115.807243
12446.191406	-115.530144
12489.257812	-115.634842
12532.324219	-115.128128
12575.390625	-115.272278
12618.457031	-115.265808
12661.523438	-115.412056
12704.589844	-115.602852
12747.656250	-115.353508
12790.722656	-115.896362
12833.789062	-115.584518
12876.855469	-115.502563
12919.921875	-115.695885
12962.988281	-115.336311
13006.054688	-115.751305
13049.121094	-115.515984
13092.187500	-116.033272
13135.253906	-116.315056
13178.320312	-115.935677
13221.386719	-115.883385
13264.453125	-115.630432
13307.519531	-115.616577
13350.585938	-115.554680
13393.652344	-115.699684
13436.718750	-115.440262
13479.785156	-115.598671
13522.851562	-115.181076
13565.917969	-115.523575
13608.984375	-115.804726
13652.050781	-115.364700
13695.117188	-115.564667
13738.183594	-115.820663
13781.250000	-115.311371
13824.316406	-115.474785
13867.382812	-115.578033
13910.449219	-115.405098
13953.515625	-115.656387
13996.582031	-115.598801
14039.648438	-115.515678
14082.714844	-115.699631
14125.781250	-115.669762
14168.847656	-115.503410
14211.914062	-116.023712
14254.980469	-116.018280
14298.046875	-115.520294
14341.113281	-115.665474
14384.179688	-115.435661
14427.246094	-115.944046
14470.312500	-116.211617
14513.378906	-115.914246
14556.445312	-115.741234
14599.511719	-115.836464
14642.578125	-115.733459
14685.644531	-115.490303
14728.710938	-115.604271
14771.777344	-115.477646
14814.843750	-115.705658
14857.910156	-115.553673
14900.976562	-115.445122
14944.042969	-115.417534
14987.109375	-115.539703
15030.175781	-115.529236
15073.242188	-115.957672
15116.308594	-115.830475
15159.375000	-115.714088
15202.441406	-115.649986
15245.507812	-115.218430
15288.574219	-115.225075
15331.640625	-115.556496
15374.707031	-115.468857
15417.773438	-115.331932
15460.839844	-115.569145
15503.906250	-115.456314
15546.972656	-115.858475
15590.039062	-115.647903
15633.105469	-115.819046
15676.171875	-115.663971
15719.238281	-115.652565
15762.304688	-115.738716
15805.371094	-116.176865
15848.437500	-115.697830
15891.503906	-115.505737
15934.570312	-115.563171
15977.636719	-115.586395
16020.703125	-115.302811
16063.769531	-115.416939
16106.835938	-115.562157
16149.902344	-115.479721
16192.968750	-115.465103
16236.035156	-115.685600
16279.101562	-115.963913
16322.167969	-115.475655
16365.234375	-115.499886
16408.300781	-115.628609
16451.367188	-115.812080
16494.433594	-115.964615
16537.500000	-115.894539
16580.566406	-115.590790
16623.632812	-115.828667
16666.699219	-115.893349
16709.765625	-115.565620
16752.832031	-115.819275
16795.898438	-115.673683
16838.964844	-115.475731
16882.031250	-115.856293
16925.097656	-115.868538
16968.164062	-115.509331
17011.230469	-115.539909
17054.296875	-115.793205
17097.363281	-115.913139
17140.429688	-115.897255
17183.496094	-115.533730
17226.562500	-115.602669
17269.628906	-115.603897
17312.695312	-115.756401
17355.761719	-115.487915
17398.828125	-115.553627
17441.894531	-115.847290
17484.960938	-116.143448
17528.027344	-115.796944
17571.093750	-115.711815
17614.160156	-115.811165
17657.226562	-115.685440
17700.292969	-115.671249
17743.359375	-115.689720
17786.425781	-115.942162
17829.492188	-115.426147
17872.558594	-115.472878
17915.625000	-115.534554
17958.691406	-115.696434
18001.757812	-115.732368
18044.824219	-115.727882
18087.890625	-115.307335
18130.957031	-115.620049
18174.023438	-115.504478
18217.089844	-115.421707
18260.156250	-115.771065
18303.222656	-115.528275
18346.289062	-115.733749
18389.355469	-115.705521
18432.421875	-116.030029
18475.488281	-115.572495
18518.554688	-115.908943
18561.621094	-115.625183
18604.687500	-115.548225
18647.753906	-115.659470
18690.820312	-115.619331
18733.886719	-115.584534
18776.953125	-115.371521
18820.019531	-115.379135
18863.085938	-115.699837
18906.152344	-115.496193
18949.218750	-115.695351
18992.285156	-115.760796
19035.351562	-115.457184
19078.417969	-115.755135
19121.484375	-116.141556
19164.550781	-115.919655
19207.617188	-115.801521
19250.683594	-115.815872
19293.750000	-115.807281
19336.816406	-116.019775
19379.882812	-115.956390
19422.949219	-115.801613
19466.015625	-115.599586
19509.082031	-115.550987
19552.148438	-115.666328
19595.214844	-115.695122
19638.281250	-115.708496
19681.347656	-115.797142
19724.414062	-115.659988
19767.480469	-115.657501
19810.546875	-115.420601
19853.613281	-115.375290
19896.679688	-115.301888
19939.746094	-115.679428
19982.812500	-115.814850
20025.878906	-115.468529
20068.945312	-115.332985
20112.011719	-115.468689
20155.078125	-115.577942
20198.144531	-115.630981
20241.210938	-115.651192
20284.277344	-115.572937
20327.343750	-115.327072
20370.410156	-115.788681
20413.476562	-115.841614
20456.542969	-115.839020
20499.609375	-115.975967
20542.675781	-115.567795
20585.742188	-115.711510
20628.808594	-115.503708
20671.875000	-115.281685
20714.941406	-115.576157
20758.007812	-115.573082
20801.074219	-115.495132
20844.140625	-115.346283
20887.207031	-115.600243
20930.273438	-115.313576
20973.339844	-115.646866
21016.406250	-115.658905
21059.472656	-115.243149
21102.539062	-115.752136
21145.605469	-116.143074
21188.671875	-116.075417
21231.738281	-115.755402
21274.804688	-115.532928
21317.871094	-115.359634
21360.937500	-115.589729
21404.003906	-115.384117
21447.070312	-115.688423
21490.136719	-115.600792
21533.203125	-115.809769
21576.269531	-115.517967
21619.335938	-115.928246
21662.402344	-115.890053
21705.468750	-115.976578
21748.535156	-116.029205
21791.601562	-115.793411
21834.667969	-115.586845
21877.734375	-115.946831
21920.800781	-115.761292
21963.867188	-115.594315
22006.933594	-115.565948
